CTI3   

DESCRIPTOR "Argyll Calibration Target chart information 3"
ORIGINATOR "Argyll dispread"
CREATED "Tue May  3 15:23:10 2016"
DEVICE_CLASS "DISPLAY"
COLOR_REP "RGB_XYZ"
TARGET_INSTRUMENT "X-Rite ColorMunki"
DISPLAY_TYPE_REFRESH "YES"
INSTRUMENT_TYPE_SPECTRAL "YES"
LUMINANCE_XYZ_CDM2 "353.846772 365.075776 427.635763"
NORMALIZED_TO_Y_100 "YES"

NUMBER_OF_FIELDS 7
BEGIN_DATA_FORMAT
SAMPLE_ID RGB_R RGB_G RGB_B XYZ_X XYZ_Y XYZ_Z 
END_DATA_FORMAT

NUMBER_OF_SETS 30
BEGIN_DATA
1 48.00000 11.00000 18.00000 8.381504 4.797954 3.423012 
2 100.0000 24.00000 46.00000 43.71967 24.10504 21.79001 
3 78.00000 0.00000 67.00000 30.14163 13.62915 45.33237 
4 47.00000 31.00000 22.00000 11.07507 9.945822 5.343631 
5 100.0000 0.00000 77.00000 49.42919 22.82579 61.26135 
6 100.0000 57.00000 78.00000 61.42167 45.20481 66.47668 
7 92.00000 0.00000 0.00000 31.17339 15.84570 1.699684 
8 67.00000 0.00000 65.00000 23.45359 10.36686 41.96286 
9 96.00000 0.00000 24.00000 35.44774 17.82991 6.611476 
10 50.00000 0.00000 37.00000 10.44779 4.897605 12.42215 
11 87.00000 69.00000 0.00000 44.71798 47.03190 5.817686 
12 100.0000 48.00000 0.00000 45.92969 34.39630 3.999270 
13 50.00000 0.00000 51.00000 12.75912 5.611978 24.41324 
14 47.00000 47.00000 24.00000 15.60071 18.41886 7.185433 
15 78.00000 0.00000 0.00000 21.61425 11.00057 1.249307 
16 100.0000 68.00000 0.00000 54.92136 51.71083 6.257606 
17 100.0000 0.00000 54.00000 43.45152 21.02199 29.62217 
18 70.00000 9.000000 67.00000 25.84046 11.85440 45.19086 
19 100.0000 46.00000 85.00000 59.63427 37.65440 78.11610 
20 100.0000 38.00000 73.00000 53.20037 31.96407 56.05545 
21 89.00000 26.00000 57.00000 37.30310 20.88551 33.09049 
22 63.00000 18.00000 41.00000 17.70214 9.960656 16.41050 
23 38.00000 9.000000 25.00000 5.905366 3.233754 5.800321 
24 18.00000 0.00000 14.00000 1.435202 0.715394 1.960314 
25 0.00000 0.00000 0.00000 0.125424 0.113295 0.252467 
26 0.00000 0.00000 0.00000 0.127209 0.115047 0.255071 
27 0.00000 0.00000 0.00000 0.126530 0.114515 0.253936 
28 100.0000 100.0000 100.0000 96.92420 100.0000 117.1362 
29 100.0000 100.0000 100.0000 96.92235 99.99511 117.1353 
30 100.0000 100.0000 100.0000 96.93503 100.0074 117.1507 
END_DATA
